Resistance (Ohms),Rms reading 1 ,Rms reading 2,Rms reading 3,Rms reading 4,Rms reading 5,Average Rms ,Std Rms
40000,0.007844,0.007858,0.007953,0.007915,0.007889,0.0078918,0.00004392835075
20000,0.00573,0.005766,0.005775,0.00586,0.005746,0.0057754,0.00005042618367
15000,0.005107,0.005138,0.005136,0.005039,0.005082,0.0051004,0.00004133158598
9990,0.004073,0.004076,0.004073,0.00411,0.004131,0.0040926,0.00002655748482
7500,0.003637,0.003653,0.003644,0.003646,0.003644,0.0036448,0.000005718391382
4990,0.003034,0.002968,0.002976,0.003039,0.002977,0.0029988,0.00003463668575
2500,0.002151,0.002157,0.002147,0.002134,0.002159,0.0021496,0.000009939818912
1000,0.001418,0.00145,0.001473,0.001478,0.001485,0.0014608,0.000027289192
0,0.0006314,0.0006288,0.0006315,0.0006248,0.0006247,0.00062824,0.000003364966567